File: data/MXene EIS.csv
Step number,Repeats,Step name,Elapsed Time  (s),DC Working Electrode (V),DC Current (A),Frequency (Hz),|Z| (Ohms),Phase (deg),Z' (Ohms),-Z" (Ohms),THD (%),Amplitude (A),Amplitude (V),No of Cycles,Duration of Each Frequency (s)
13,1,Potentiostatic EIS,2213.43,-0.000829589,-4.7461e-07,1000000,1.4326,54.894,0.823876,-1.172,2.09496,0.00426397,0.00610859,1430,0.00143
13,1,Potentiostatic EIS,2214.08,-0.00077503,-5.20998e-05,794328,1.22067,50.5961,0.774858,-0.943198,2.59118,0.00502087,0.00612882,1445,0.00181915
13,1,Potentiostatic EIS,2214.6,-0.00071504,-5.44102e-05,630957.25,1.06572,44.7435,0.756942,-0.750195,2.28031,0.0055822,0.00594906,1355,0.00214753
13,1,Potentiostatic EIS,2215.14,-0.000679662,-5.48947e-05,501187,0.953703,38.6195,0.745136,-0.59525,1.98721,0.00596335,0.00568729,1385,0.00276344
13,1,Potentiostatic EIS,2215.7,-0.000667665,-5.33205e-05,398107,0.87344,32.5429,0.7363,-0.46985,1.48988,0.00627827,0.00548372,1400,0.00351664
13,1,Potentiostatic EIS,2216.3,-0.000640587,-5.37012e-05,316228,0.819628,26.974,0.730463,-0.371772,1.51326,0.00655832,0.00537541,1370,0.00433232
13,1,Potentiostatic EIS,2216.94,-0.000646046,-5.28651e-05,251188.5,0.785301,21.7524,0.729383,-0.29103,1.46233,0.0068172,0.00535356,1340,0.00533464
13,1,Potentiostatic EIS,2217.64,-0.00064742,-5.16084e-05,199526,0.762145,17.2833,0.727732,-0.22643,1.34691,0.0070845,0.00539944,1355,0.00679109
13,1,Potentiostatic EIS,2218.4,-0.000642728,-5.24461e-05,158489,0.747546,13.5545,0.726725,-0.175202,1.36091,0.00738328,0.00551935,1360,0.00858103
13,1,Potentiostatic EIS,2219.24,-0.000635914,-5.27853e-05,125892,0.741035,10.2911,0.729114,-0.132385,1.12079,0.00776865,0.00575685,1370,0.0108823
13,1,Potentiostatic EIS,2220.18,-0.000634212,-1.87879e-05,99999.9,0.737499,7.74373,0.730773,-0.0993723,1.21348,0.00829585,0.00611821,1370,0.0137
13,1,Potentiostatic EIS,2221.26,-0.000635702,-1.84462e-05,79432.8,0.734636,5.53869,0.731207,-0.0709056,1.06188,0.00903596,0.00663816,1365,0.0171843
13,1,Potentiostatic EIS,2222.12,-0.000640609,-1.96318e-05,63095.7,0.734961,3.6722,0.733452,-0.0470728,0.93478,0.01007,0.00740106,1290,0.0204451
13,1,Potentiostatic EIS,2222.65,-0.000648691,-2.14442e-05,50118.7,0.737104,2.09542,0.736611,-0.0269513,0.821352,0.0115093,0.00848356,1025,0.0204515
13,1,Potentiostatic EIS,2223.18,-0.000636713,-2.22909e-05,39810.7,0.73987,0.740255,0.739808,-0.00955877,0.779016,0.0134597,0.00995844,815,0.0204719
13,1,Potentiostatic EIS,2223.72,-0.00058617,-2.00186e-05,31622.8,0.742232,-0.552953,0.742197,0.00716306,0.761363,0.0134422,0.00997726,645,0.0203967
13,1,Potentiostatic EIS,2224.25,-0.000533182,-1.81588e-05,25118.8,0.748653,-1.6668,0.748336,0.0217761,0.703907,0.0133311,0.0099804,510,0.0203035
13,1,Potentiostatic EIS,2224.77,-0.000480568,-1.66982e-05,19952.6,0.753787,-2.77125,0.752906,0.0364445,0.833904,0.012977,0.00978183,405,0.0202981
13,1,Potentiostatic EIS,2225.26,-0.000461745,-1.70348e-05,15848.9,0.759427,-3.86814,0.757697,0.0512314,0.682311,0.0131455,0.00998308,320,0.0201906
13,1,Potentiostatic EIS,2225.74,-0.000416831,-1.69091e-05,12589.2,0.766171,-5.08468,0.763156,0.0679042,0.787294,0.0130265,0.00998053,255,0.0202554
13,1,Potentiostatic EIS,2226.21,-0.00047602,-3.42866e-05,9999.98,0.773127,-6.21232,0.768587,0.0836625,0.67352,0.0129383,0.010003,307,0.0307001
13,1,Potentiostatic EIS,2226.45,-0.000466178,-5.14021e-05,7943.27,0.782188,-7.50961,0.775479,0.102226,0.256005,0.0128089,0.0100189,244,0.0307178
13,1,Potentiostatic EIS,2226.7,-0.000444829,-4.91375e-05,6309.57,0.792373,-9.10717,0.782384,0.125418,0.12057,0.0126646,0.0100351,193,0.0305885
13,1,Potentiostatic EIS,2226.94,-0.000435339,-4.84963e-05,5011.87,0.808307,-10.8667,0.793812,0.152386,0.132553,0.0123844,0.0100104,153,0.0305276
13,1,Potentiostatic EIS,2227.18,-0.000426626,-4.5556e-05,3981.07,0.825149,-12.7487,0.804807,0.18209,0.125158,0.0121259,0.0100056,122,0.0306451
13,1,Potentiostatic EIS,2227.33,-0.000424916,-4.69411e-05,3162.27,0.847259,-14.8975,0.81878,0.217822,0.107704,0.0111012,0.0094056,97,0.0306742
13,1,Potentiostatic EIS,2227.48,-0.000432979,-4.41086e-05,2511.88,0.872948,-17.3757,0.833113,0.260693,0.14077,0.0115214,0.0100576,77,0.0306543
13,1,Potentiostatic EIS,2227.63,-0.000426975,-4.63914e-05,1995.26,0.90701,-20.1464,0.851515,0.312392,0.125962,0.0112131,0.0101704,61,0.0305725
13,1,Potentiostatic EIS,2227.78,-0.000430316,-3.541e-05,1584.89,0.949298,-23.1811,0.872657,0.37368,0.140023,0.0106047,0.010067,48,0.030286
13,1,Potentiostatic EIS,2227.93,-0.000430267,-3.39288e-05,1258.92,1.00433,-26.5604,0.898333,0.449075,0.139191,0.00996424,0.0100073,38,0.0301845
13,1,Potentiostatic EIS,2228.08,-0.000421457,-4.54542e-05,999.999,1.07422,-30.0887,0.929469,0.53855,0.177836,0.009283,0.009972,30,0.03
13,1,Potentiostatic EIS,2228.23,-0.000429835,-4.98281e-05,794.328,1.1639,-33.7461,0.967789,0.646562,0.183085,0.00855287,0.00995467,24,0.0302142
13,1,Potentiostatic EIS,2228.38,-0.00042313,-4.66608e-05,630.956,1.27743,-37.4206,1.01453,0.776243,0.252433,0.00779407,0.00995636,19,0.030113
13,1,Potentiostatic EIS,2228.57,-0.000426424,-2.72194e-05,501.185,1.41995,-40.9974,1.07169,0.931523,0.302925,0.00704408,0.0100022,15,0.029929
13,1,Potentiostatic EIS,2228.72,-0.000426097,-2.39205e-05,398.107,1.59844,-44.3448,1.14312,1.11727,0.698743,0.0062298,0.00995798,12,0.0301427
13,1,Potentiostatic EIS,2228.87,-0.000429437,-3.75451e-05,316.227,1.82007,-47.3757,1.23253,1.33922,0.74124,0.00547667,0.0099679,9,0.0284606
13,1,Potentiostatic EIS,2229.02,-0.000419401,-1.98919e-05,251.188,2.08817,-50.0537,1.34075,1.60089,0.511196,0.00477734,0.0099759,8,0.0318487
13,1,Potentiostatic EIS,2229.19,-0.000428267,-2.88515e-05,199.526,2.41612,-52.287,1.47796,1.91135,0.318498,0.00412905,0.00997626,8,0.0400951
13,1,Potentiostatic EIS,2229.46,-0.000425065,6.79024e-06,158.489,2.80984,-54.0924,1.64791,2.27587,0.233266,0.00353483,0.00993231,8,0.0504767
13,1,Potentiostatic EIS,2229.67,-0.000429933,2.30923e-06,125.892,3.27549,-55.5281,1.85393,2.70032,0.254102,0.00305157,0.00999539,8,0.0635464
13,1,Potentiostatic EIS,2229.91,-0.000433591,1.80119e-06,99.9997,3.82465,-56.5871,2.10611,3.19253,0.241295,0.00261344,0.00999549,8,0.0800003
13,1,Potentiostatic EIS,2230.18,-0.00043592,2.15911e-06,79.4325,4.46716,-57.3623,2.40925,3.76178,0.268987,0.00223865,0.0100004,8,0.100714
13,1,Potentiostatic EIS,2230.52,-0.000431712,-2.13396e-06,63.0956,5.21236,-57.9718,2.7643,4.41898,0.249197,0.00191775,0.00999601,8,0.126792
13,1,Potentiostatic EIS,2230.91,-0.000431608,2.76871e-06,50.1186,6.08029,-58.339,3.1915,5.17536,0.256452,0.00164571,0.0100064,8,0.159621
13,1,Potentiostatic EIS,2231.39,-0.000433966,2.50215e-06,39.8106,7.07994,-58.7331,3.67467,6.05164,0.267471,0.00141306,0.0100044,8,0.200952
13,1,Potentiostatic EIS,2231.8,-0.000441508,-6.34892e-06,31.6227,8.24128,-59.2517,4.21349,7.08273,0.721221,0.00122134,0.0100654,2,0.0632458
13,1,Potentiostatic EIS,2232.07,-0.000464164,-2.94012e-06,25.1188,9.59495,-59.561,4.861,8.27247,0.311872,0.00104817,0.0100571,2,0.0796217
13,1,Potentiostatic EIS,2232.41,-0.000431386,5.16481e-06,19.9525,11.1747,-59.9858,5.58975,9.67618,0.284444,0.000899892,0.010056,2,0.100238
13,1,Potentiostatic EIS,2232.95,-0.000408764,3.82162e-06,15.8489,13.0472,-60.5175,6.42126,11.3577,0.279095,0.000767979,0.01002,2,0.126192
13,1,Potentiostatic EIS,2233.53,-0.000413588,4.06723e-06,12.5892,15.2516,-61.0505,7.38237,13.3459,0.270532,0.000657392,0.0100263,2,0.158866
13,1,Potentiostatic EIS,2234.46,-0.00042653,3.49756e-06,9.99996,17.8718,-61.4587,8.53899,15.6999,0.265539,0.000560163,0.0100111,2,0.200001
13,1,Potentiostatic EIS,2235.27,-0.000430395,2.84097e-06,7.94325,20.9512,-61.8525,9.88361,18.4735,0.273659,0.000478027,0.0100153,2,0.251786
13,1,Potentiostatic EIS,2236.21,-0.000419998,3.74537e-06,6.30955,24.5521,-62.1767,11.4596,21.7136,0.247911,0.000407372,0.0100018,2,0.31698
13,1,Potentiostatic EIS,2237.45,-0.000426697,3.275e-06,5.01185,28.736,-62.5377,13.252,25.4978,0.244729,0.000348452,0.0100131,2,0.399054
13,1,Potentiostatic EIS,2238.94,-0.000424038,3.74836e-06,3.98106,33.6096,-63.0034,15.2567,29.9473,0.248915,0.000297812,0.0100094,2,0.502378
13,1,Potentiostatic EIS,2240.8,-0.000416213,3.93804e-06,3.16227,39.2494,-63.7308,17.3714,35.1959,0.254642,0.000254896,0.0100045,2,0.632458
13,1,Potentiostatic EIS,2243.25,-0.00042156,3.7785e-06,2.51188,45.9886,-64.7787,19.5965,41.6045,0.245825,0.000217631,0.0100085,2,0.796217
13,1,Potentiostatic EIS,2246.29,-0.000419297,4.18827e-06,1.99526,54.0909,-66.1479,21.8731,49.4711,0.251148,0.000185065,0.0100103,2,1.00238
13,1,Potentiostatic EIS,2250.1,-0.000420902,4.29612e-06,1.58489,64.0957,-67.7579,24.2616,59.3265,0.271418,0.000156069,0.0100033,2,1.26192
13,1,Potentiostatic EIS,2256.52,-0.000418808,4.43469e-06,1.25892,76.6681,-69.4631,26.896,71.7956,0.274948,0.000130523,0.0100069,2,1.58866
13,1,Potentiostatic EIS,2262.26,-0.000424412,4.68104e-06,0.999995,92.3665,-71.1947,29.7747,87.4359,0.295743,0.000108402,0.0100127,2,2.00001
13,1,Potentiostatic EIS,2269.47,-0.000420408,4.94916e-06,0.794324,112.183,-72.821,33.134,107.178,0.302671,8.91893e-05,0.0100055,2,2.51786
13,1,Potentiostatic EIS,2278.53,-0.000427755,5.27077e-06,0.630955,137.21,-74.2989,37.1317,132.091,0.344024,7.29408e-05,0.0100082,2,3.1698
13,1,Potentiostatic EIS,2297.79,-0.000421069,5.74503e-06,0.501186,169.64,-75.5344,42.3759,164.262,0.365689,5.89473e-05,0.00999979,2,3.99054
13,1,Potentiostatic EIS,2327.97,-0.000423299,6.7526e-06,0.398106,211.613,-76.5522,49.2128,205.811,0.402138,4.73015e-05,0.0100096,2,5.02379
13,1,Potentiostatic EIS,2374.09,-0.000426993,7.11309e-06,0.316226,265.389,-77.373,58.0146,258.97,0.410007,3.76994e-05,0.010005,2,6.32458
13,1,Potentiostatic EIS,2390.14,-0.000427227,7.57789e-06,0.3,280.117,-77.4647,60.7969,273.44,0.46368,3.57016e-05,0.0100006,2,6.66667