File: data/MXene_EIS_fit_results_linearLS.csv
Frequency_Hz,Zre_data_Ohm,Zim_data_Ohm,Zre_fit_Ohm,Zim_fit_Ohm,Re_residual_Ohm,Im_residual_Ohm
1000000.0,0.823876,1.172,0.872982,1.17955,0.0491062,0.00755335
891251,0.805428,1.04754,0.873029,1.05093,0.0676006,0.00339027
794328,0.774858,0.943198,0.873079,0.936269,0.0982212,-0.00692887
707946,0.763868,0.841394,0.873135,0.834037,0.109267,-0.00735687
630957.25,0.756942,0.750195,0.873196,0.742882,0.116254,-0.00731346
562341.25,0.750765,0.669071,0.873264,0.661594,0.122499,-0.00747657
501187,0.745136,0.59525,0.873338,0.589097,0.128202,-0.00615255
446684,0.73857,0.528102,0.873419,0.524429,0.134849,-0.00367237
398107,0.7363,0.46985,0.873508,0.466734,0.137208,-0.00311635
354813,0.73424,0.42159,0.873606,0.415246,0.139366,-0.0063438
316228,0.730463,0.371772,0.873714,0.369285,0.143251,-0.00248664
281838,0.730378,0.32884,0.873832,0.328242,0.143454,-0.000597836
251188.5,0.729383,0.29103,0.873962,0.291574,0.144579,0.000543644
223872,0.727965,0.255971,0.874105,0.258797,0.14614,0.00282605
199526,0.727732,0.22643,0.874262,0.229478,0.146529,0.0030473
177828,0.728121,0.199154,0.874434,0.203229,0.146313,0.00407502
158489,0.726725,0.175202,0.874624,0.179706,0.147898,0.00450388
141254,0.727734,0.152724,0.874832,0.1586,0.147098,0.00587515
125892,0.729114,0.132385,0.87506,0.139632,0.145947,0.00724693
112202,0.728364,0.114334,0.875312,0.122555,0.146948,0.00822096
99999.9,0.730773,0.0993723,0.875588,0.107146,0.144815,0.00777373
89125.1,0.73106,0.0832398,0.875891,0.0932049,0.144832,0.00996508
79432.8,0.731207,0.0709056,0.876225,0.0805508,0.145018,0.00964518
70794.5,0.733427,0.0584977,0.876591,0.0690208,0.143165,0.0105231
63095.7,0.733452,0.0470728,0.876994,0.0584678,0.143543,0.011395
56234.1,0.735303,0.0360232,0.877437,0.0487573,0.142134,0.0127342
50118.7,0.736611,0.0269513,0.877924,0.0397673,0.141313,0.012816
44668.3,0.737287,0.0166042,0.878459,0.0313858,0.141172,0.0147816
39810.7,0.739808,0.00955877,0.879047,0.0235095,0.139239,0.0139507
35481.3,0.742133,0.00155738,0.879693,0.0160427,0.137561,0.0144853
31622.8,0.742197,-0.00716306,0.880404,0.00889596,0.138207,0.016059
28183.8,0.745856,-0.0151656,0.881186,0.00198494,0.13533,0.0171506
25118.8,0.748336,-0.0217761,0.882045,-0.00477019,0.133709,0.0170059
22387.2,0.749824,-0.0292449,0.88299,-0.0114461,0.133166,0.0177987
19952.6,0.752906,-0.0364445,0.884029,-0.0181175,0.131124,0.018327
17782.8,0.754427,-0.043474,0.885172,-0.0248574,0.130745,0.0186166
15848.9,0.757697,-0.0512314,0.88643,-0.0317379,0.128733,0.0194935
14125.4,0.759305,-0.0598153,0.887813,-0.0388316,0.128508,0.0209837
12589.2,0.763156,-0.0679042,0.889334,-0.0462121,0.126179,0.0216921
11220.2,0.766435,-0.0776976,0.891009,-0.0539543,0.124574,0.0237433
9999.98,0.768587,-0.0836625,0.892851,-0.0621361,0.124264,0.0215264
8912.5,0.771793,-0.0929711,0.894879,-0.0708383,0.123086,0.0221328
7943.27,0.775479,-0.102226,0.897111,-0.0801461,0.121632,0.0220799
7079.45,0.779155,-0.113331,0.899568,-0.0901496,0.120413,0.0231815
6309.57,0.782384,-0.125418,0.902274,-0.100945,0.119889,0.0244734
5623.41,0.788755,-0.137885,0.905254,-0.112634,0.116499,0.0252504
5011.87,0.793812,-0.152386,0.908536,-0.125328,0.114724,0.0270576
4466.83,0.799507,-0.166691,0.912152,-0.139146,0.112645,0.0275445
3981.07,0.804807,-0.18209,0.916137,-0.154218,0.111331,0.0278726
3548.13,0.811272,-0.197842,0.92053,-0.170682,0.109257,0.0271596
3162.27,0.81878,-0.217822,0.925373,-0.188693,0.106593,0.0291294
2818.38,0.825359,-0.23809,0.930714,-0.208415,0.105355,0.0296751
2511.88,0.833113,-0.260693,0.936606,-0.230031,0.103493,0.0306619
2238.72,0.84173,-0.285473,0.943109,-0.253739,0.101378,0.031734
1995.26,0.851515,-0.312392,0.950287,-0.279756,0.0987715,0.0326364
1778.28,0.861609,-0.341869,0.958214,-0.308318,0.0966047,0.0335509
1584.89,0.872657,-0.37368,0.966972,-0.339686,0.0943151,0.0339935
1412.53,0.885356,-0.409687,0.976652,-0.374144,0.0912957,0.0355427
1258.92,0.898333,-0.449075,0.987355,-0.412001,0.0890215,0.0370736
1122.02,0.913127,-0.491773,0.999196,-0.453601,0.0860689,0.0381722
999.999,0.929469,-0.53855,1.0123,-0.499314,0.0828322,0.0392368
891.25,0.947929,-0.590178,1.02682,-0.549549,0.0788868,0.0406298
794.328,0.967789,-0.646562,1.0429,-0.604751,0.0751099,0.0418115
707.945,0.989557,-0.708519,1.06073,-0.665409,0.0711753,0.0431107
630.956,1.01453,-0.776243,1.08052,-0.732054,0.06599,0.0441891
562.34,1.04145,-0.850204,1.10248,-0.80527,0.0610292,0.0449348
501.185,1.07169,-0.931523,1.12689,-0.885687,0.0551951,0.0458358
446.683,1.10558,-1.02009,1.15402,-0.973996,0.0484414,0.0460898
398.107,1.14312,-1.11727,1.18421,-1.07095,0.041087,0.0463215
354.813,1.18665,-1.2218,1.21782,-1.17736,0.0311749,0.044438
316.227,1.23253,-1.33922,1.25528,-1.29412,0.022752,0.045103
281.838,1.28275,-1.46385,1.29705,-1.42218,0.0142972,0.0416768
251.188,1.34075,-1.60089,1.34367,-1.56257,0.00292312,0.0383181
223.872,1.40476,-1.75019,1.39575,-1.71641,-0.00901181,0.0337783
199.526,1.47796,-1.91135,1.45395,-1.8849,-0.0240008,0.0264553
177.828,1.55683,-2.08695,1.51906,-2.0693,-0.0377678,0.0176514
158.489,1.64791,-2.27587,1.59194,-2.271,-0.0559782,0.00486975
141.253,1.74585,-2.47937,1.67355,-2.49144,-0.0722996,-0.0120693
125.892,1.85393,-2.70032,1.76499,-2.73214,-0.0889408,-0.0318163
112.201,1.97354,-2.93895,1.86749,-2.99472,-0.106044,-0.05577
99.9997,2.10611,-3.19253,1.9824,-3.28085,-0.123712,-0.0883237
89.1248,2.25136,-3.46752,2.11123,-3.59227,-0.140126,-0.124751
79.4325,2.40925,-3.76178,2.25564,-3.93077,-0.153612,-0.168987
70.7943,2.58577,-4.07193,2.41745,-4.29815,-0.168327,-0.226215
63.0956,2.7643,-4.41898,2.59861,-4.69622,-0.165691,-0.277246
56.2341,2.97169,-4.78086,2.80125,-5.12682,-0.170442,-0.345956
50.1186,3.1915,-5.17536,3.02758,-5.5917,-0.163921,-0.416345
44.6682,3.42484,-5.59507,3.27991,-6.09259,-0.14493,-0.497523
39.8106,3.67467,-6.05164,3.56059,-6.63112,-0.114078,-0.57949
35.4812,3.94854,-6.537,3.87194,-7.20886,-0.0765978,-0.671866
31.6227,4.21349,-7.08273,4.21618,-7.82728,0.00268798,-0.744546
28.1838,4.54016,-7.62753,4.59531,-8.4878,0.0551484,-0.860273
25.1188,4.861,-8.27247,5.01103,-9.19188,0.150032,-0.919411
22.3871,5.21046,-8.93873,5.46461,-9.94103,0.254146,-1.0023
19.9525,5.58975,-9.67618,5.95674,-10.737,0.366988,-1.06082
17.7828,5.99169,-10.4777,6.48746,-11.582,0.495773,-1.10427
15.8489,6.42126,-11.3577,7.05613,-12.4787,0.634863,-1.12106
14.1253,6.89507,-12.3031,7.66128,-13.431,0.766201,-1.12796
12.5892,7.38237,-13.3459,8.30067,-14.4437,0.918302,-1.09789
11.2201,7.93781,-14.4789,8.97149,-15.5234,1.03368,-1.04449
9.99996,8.53899,-15.6999,9.67032,-16.6782,1.13133,-0.978287
8.91248,9.17914,-17.0258,10.3935,-17.9186,1.21436,-0.892713
7.94325,9.88361,-18.4735,11.1373,-19.2573,1.25371,-0.783786
7.07944,10.6461,-20.0304,11.8983,-20.7095,1.25225,-0.679066
6.30955,11.4596,-21.7136,12.6736,-22.2932,1.21398,-0.579574
5.62339,12.3287,-23.5193,13.461,-24.0289,1.13224,-0.50966
5.01185,13.252,-25.4978,14.2594,-25.9399,1.00737,-0.442098
4.46682,14.2397,-27.6219,15.0689,-28.0522,0.829251,-0.430321
3.98106,15.2567,-29.9473,15.891,-30.3944,0.634334,-0.447132
3.54812,16.2887,-32.4596,16.7282,-32.9982,0.439516,-0.5386
3.16227,17.3714,-35.1959,17.5845,-35.8977,0.213136,-0.701832
2.81837,18.4807,-38.2193,18.4651,-39.1306,-0.0155449,-0.911272
2.51188,19.5965,-41.6045,19.3765,-42.7374,-0.219948,-1.13291
2.23872,20.7137,-45.3202,20.3262,-46.7625,-0.387483,-1.44231
1.99526,21.8731,-49.4711,21.3229,-51.2544,-0.550156,-1.78333
1.77827,23.0801,-54.1261,22.3762,-56.266,-0.703941,-2.13989
1.58489,24.2616,-59.3265,23.4968,-61.8553,-0.764771,-2.52884
1.41253,25.5519,-65.1743,24.6964,-68.0858,-0.855491,-2.91151
1.25892,26.896,-71.7956,25.9879,-75.0281,-0.908094,-3.23254
1.12202,28.2648,-79.1527,27.3852,-82.7592,-0.879593,-3.60651
0.999995,29.7747,-87.4359,28.9035,-91.365,-0.871206,-3.92901
0.891248,31.3706,-96.7505,30.5593,-100.939,-0.811351,-4.18899
0.794324,33.134,-107.178,32.3707,-111.588,-0.763262,-4.41028
0.707944,35.0984,-118.919,34.3575,-123.426,-0.74094,-4.50681
0.630955,37.1317,-132.091,36.5413,-136.582,-0.590363,-4.4917
0.562339,39.6031,-146.849,38.9458,-151.199,-0.657309,-4.35029
0.501186,42.3759,-164.262,41.5971,-167.435,-0.778788,-3.17328
0.446681,45.6664,-184.333,44.5239,-185.466,-1.1425,-1.13298
0.398106,49.2128,-205.811,47.7578,-205.484,-1.45505,0.327444
0.354812,53.2314,-230.388,51.3338,-227.707,-1.89755,2.68097
0.316226,58.0146,-258.97,55.2905,-252.374,-2.72413,6.59567
0.3,60.7969,-273.44,57.2392,-264.547,-3.55765,8.89327